"Sens Factor = -0.8 dB, EARS Serial  860-3591"
Freq(Hz) SPL(dB) Phase(degrees)
10.0 -22.360478663522393
10.6 -22.008882560190454
11.2 -21.565635536348758
11.8 -20.829865756464233
12.5 -20.079934185309366
13.2 -19.138174251364624
14.0 -18.285091058135617
15.0 -17.605594808560408
16.0 -16.937687280613556
17.0 -16.27996240247118
18.0 -15.831255431811394
19.0 -15.490590704661894
20.0 -14.957142802400464
21.2 -14.705546699068563
22.4 -14.562299675226779
23.6 -14.324962708942893
25.0 -14.06195974905018
26.5 -13.791164728010058
28.0 -13.523450065621892
30.0 -13.19985141390347
31.5 -12.834447040134762
33.5 -12.517931440498636
35.5 -12.104923503441224
37.5 -11.795118551159835
40.0 -11.436778184182812
42.5 -11.083814022565464
45.0 -10.736031063129394
47.5 -10.39355047019954
50.0 -10.056367632858736
53.0 -9.778735978462093
56.0 -9.408978241563045
60.0 -9.06048943483884
63.0 -8.708280213517323
67.0 -8.383513009291741
71.0 -8.072382074719927
75.0 -7.874730848699242
80.0 -7.521536273025989
85.0 -7.289405186931033
90.0 -6.978302252818134
95.0 -6.788160359711408
100.0 -6.5189098984826765
106.0 -6.242332370232371
112.0 -6.105567846837957
118.0 -5.899475642633058
125.0 -5.79154116362551
132.0 -5.716168240538775
140.0 -5.657494974626003
150.0 -5.501113007104779
160.0 -5.466370569734761
170.0 -5.3307497233621355
180.0 -5.0802287002296005
190.0 -4.91443423880189
200.0 -4.8377951208629755
212.0 -4.570886983281849
224.0 -4.564900615311808
236.0 -4.502545216579201
250.0 -4.460707115191786
265.0 -4.540874762664536
280.0 -4.531401394752703
300.0 -4.4845954385805955
315.0 -4.390804632783779
335.0 -4.1387016406781
355.0 -3.78577877886495
375.0 -3.556388267663953
400.0 -3.2478484820911673
425.0 -3.1285210671597534
450.0 -3.2454263479479404
475.0 -3.305405893915676
500.0 -3.4122117043531808
530.0 -3.3453384084858
560.0 -3.200655930955718
600.0 -2.9747562665611107
630.0 -2.8449820556714864
670.0 -2.648822971574259
710.0 -2.671117400966952
750.0 -2.573566657172076
800.0 -2.4697606699636134
850.0 -2.3369202630860006
900.0 -2.267324678620451
950.0 -2.1583584367043556
1000.0 -2.1968907518521115
1060.0 -2.1748181667423356
1120.0 -2.159549797426097
1180.0 -2.1342738189711685
1250.0 -2.0137358181967255
1320.0 -2.0417117841704657
1400.0 -2.0857848856884873
1500.0 -2.092049052960662
1600.0 -2.1299036449981417
1700.0 -2.097916337860561
1800.0 -2.179141655408633
1900.0 -2.2029258859751435
2000.0 -2.2094488479591923
2120.0 -2.3731558154635146
2240.0 -2.522539203095213
2360.0 -2.520977084018745
2500.0 -2.4480737929851535
2650.0 -2.3207088221796135
2800.0 -2.2648166953476556
3000.0 -1.9689861634548202
3150.0 -1.6591124240326391
3350.0 -1.317276866481134
3550.0 -1.031512859674756
3750.0 -0.65518027965719
4000.0 -0.113473314314679
4250.0 0.4939211242636453
4500.0 1.2900359912473385
4750.0 1.8827679167722338
5000.0 2.0493726050913477
5300.0 1.8036954195836339
5600.0 1.196240876393822
6000.0 0.07933393026963964
6300.0 -0.8083141885454945
6700.0 -1.614681840494384
7100.0 -1.885407970220513
7500.0 -1.7582686955861537
8000.0 -1.4825092019602462
8500.0 -1.5264780535607327
9000.0 -2.5445786504514407
9500.0 -3.946535015408537
10000.0 -4.4553104793627405
10600.0 -4.058601713196657
11200.0 -3.409848629370273
11800.0 -2.6469575573504596
12500.0 -1.232038201768692
13200.0 0.05228858825559102
14000.0 0.05053441589506949
15000.0 -0.9925184222576873
16000.0 5.665665514971256
17000.0 2.896475506069543
18000.0 5.40279981597082
19000.0 1.0836138068534034
20000.0 1.3470884845403797